File: csv/Al_fumarate.csv
Relative Pressure (P/Po), Quantity Adsorbed (cm3/g STP)
6.51E-05,0.178173
9.45E-05,0.349631
0.000140029,0.599944
0.000168502,1.15515
0.000212523,3.03911
0.000256869,22.9596
0.000285953,42.8873
0.000318927,62.806
0.00032856,63.5863
0.000397185,67.5014
0.000427058,87.4391
0.000458442,107.325
0.000511064,127.186
0.000580619,145.276
0.000637337,156.142
0.000890495,175.838
0.001019138,182.528
0.001355172,190.539
0.001632038,195.273
0.002111946,200.351
0.002599008,203.99
0.003298337,208.065
0.004368838,212.166
0.005230467,214.688
0.006777789,218.058
0.008474152,220.905
0.0107617,223.99
0.0140771,227.137
0.0170254,229.349
0.0221382,232.301
0.027921,234.889
0.0355329,237.453
0.0447292,239.848
0.0568625,242.313
0.0746405,244.988
0.0944469,247.283
0.119932,249.593
0.14986,251.76
0.188607,254.05
0.237609,256.44
0.302415,259.24
0.375745,262.296
0.474393,266.757
0.538919,270.347
0.60262,274.671
0.644038,278.143
0.684098,282.08
0.723912,286.64
0.763564,292.059
0.790607,296.302
0.815629,300.722
0.840577,305.775
0.865723,311.738
0.91707,330.684
0.94041,346.424
0.96198,368.415
0.97071,381.535