File: csv/DMOF-1.csv
Relative Pressure (P/Po), Quantity Adsorbed (cm3/g STP)
0.0000475,0.291525
0.0000969,0.576831
0.000123181,0.620049
0.000128577,0.658136
0.000164533,0.952826
0.000217301,5.9964
0.000257214,15.9663
0.000279122,25.9374
0.000300744,35.9062
0.000322968,45.8747
0.000351409,56.1855
0.000368692,66.1524
0.000383691,76.1194
0.000393716,86.0866
0.000410668,96.0527
0.000431396,106.022
0.000433515,115.991
0.000434096,125.956
0.00044681,135.92
0.000448218,155.853
0.000460131,212.5
0.000469896,242.8
0.000479868,263.6
0.000495921,293.589
0.000505841,312.603
0.000522755,322.559
0.000561279,332.508
0.000612371,351.476
0.000762905,361.397
0.001046492,371.29
0.001338775,376.7
0.001690835,381.172
0.002200656,385.8
0.002830961,390.919
0.003348623,396.201
0.003953084,406.052
0.004340588,415.523
0.005364889,425.145
0.006599917,430.69
0.008409006,435.144
0.0106471,438.35
0.01347842,440.784
0.0174008,442.841
0.0220374,444.346
0.0288725,445.708
0.0379485,446.804
0.0432212,447.246
0.0563305,448.001
0.0757048,448.672
0.0967475,449.124
0.121067,449.47
0.148104,449.732
0.182104,449.965
0.230198,450.201
0.294028,450.436
0.376153,450.67
0.47515,450.957
0.539635,451.201
0.602891,451.544
0.644113,451.874
0.683964,452.334
0.723677,453.015
0.762441,454.126
0.7894,455.385
0.815017,457.081
0.840146,459.277
0.865212,462.03
0.930034,467.33
0.95885,467.786
0.983378,468.348