File: csv/EXP_ZIF-8powder.csv
Relative Pressure (P/Po),Quantity Adsorbed (cm³/g STP)
4.19974E-05,20.2827
9.96909E-05,40.673
0.000148121,60.8768
0.000188506,81.2511
0.000224278,101.619
0.000259844,122.03
0.000299953,142.399
0.000349057,162.786
0.000417927,183.077
0.000521085,203.347
0.000684773,223.567
0.000949862,243.586
0.001422718,263.188
0.00193056,275.084
0.002936687,288.422
0.003871099,295.855
0.004945074,301.799
0.005730774,305.33
0.006698907,312.628
0.008054492,323.337
0.008892109,328.072
0.009781263,332.321
0.02074716,356.461
0.0291109,364.384
0.0381637,400.802
0.04836001,414.136
0.0637743,420.063
0.0697769,421.703
0.08004303,424.026
0.0900836,425.975
0.10043,427.725
0.145027,433.484
0.20271,438.997
0.25486,443.154
0.305344,446.727
0.354387,449.933
0.39927,452.62
0.449413,455.327
0.499422,457.832
0.549131,460.224
0.599553,462.618
0.648966,465.068
0.699056,467.854
0.748964,471.047
0.7992439,474.815
0.809236,475.769
0.819317,476.77
0.829267,477.786
0.839404,478.859
0.850175,480.095
0.859576,481.218
0.86908,482.572
0.879065,484.124
0.889537,485.88
0.899628,487.736
0.909863,489.885
0.919855,492.417
0.929147,495.204
0.939056,498.743
0.948885,503.23
0.959088,509.388
0.969052,517.72
0.978076,529.029
0.986984,548.985
0.994456,585.441