File: csv/HKUST-1.csv
Relative Pressure (P/Po), Quantity Adsorbed (cm3/g STP)
4.60E-07,29.2422
8.08E-07,58.6914
1.24E-06,88.1823
1.95E-06,117.771
3.47E-06,147.021
1.98E-05,176.627
3.01E-05,188.1
3.99E-05,197.3
4.84E-05,205.734
6.00E-05,219.4
7.19E-05,234.899
8.00E-05,247.5
9.10E-05,263.906
0.000122165,292.899
0.000169951,309.4
0.000240034,320.839
0.000469896,333.9
0.001029937,346.752
0.002010342,351.561
0.003045762,354.006
0.003948507,355.426
0.004830186,356.484
0.005912671,357.525
0.006904737,358.317
0.007945685,359.036
0.00893684,359.633
0.009950202,360.2
0.0195664,363.856
0.02937333,366.721
0.0395738,369.6
0.0530488,373.587
0.0597825,375.548
0.0702859,377.661
0.0803821,379.273
0.0906934,380.715
0.100864,381.989
0.145578,386.47
0.201715,390.405
0.255898,393.273
0.306355,395.433
0.355727,396.995
0.400711,398.472
0.450996,399.931
0.500912,401.229
0.550729,402.389
0.60054,403.447
0.650424,404.438
0.699409,405.32
0.74943,406.162
0.79959,406.977
0.810604,407.276
0.82075,407.439
0.830251,407.588
0.840611,407.741
0.85009,407.871
0.86014,408.01
0.870537,408.164
0.880439,408.312
0.890352,408.441
0.900085,408.576
0.909886,408.727
0.920408,408.878
0.930174,409.027
0.940068,409.168
0.949687,409.337
0.959834,409.498
0.969298,409.673
0.979272,409.882
0.989261,410.101
0.998416,410.547