File: csv/MCM-41.csv
Relative Pressure (P/Po), Quantity Adsorbed (cm3/g STP)
9.79E-03,141.85
1.30E-02,147.3
0.0169922,153.9
0.0219937,161.7
0.02998674,172.9
0.039658,183.788
0.0560226,197.1
0.0712954,206.89
0.104928,225.112
0.129699,236.616
0.159961,249.475
0.191746,262.327
0.222604,274.802
0.252936,287.723
0.284027,303.513
0.305135,320.3
0.316013,333.943
0.333871,392.7
0.343961,420.773
0.372991,458.9
0.427552,493.679
0.447576,495.091
0.476895,496.975
0.499736,498.291
0.529858,499.888
0.560582,501.384
0.591213,502.776
0.621879,504.132
0.652785,505.412
0.683268,506.643
0.713948,507.858
0.744564,509.086
0.775127,510.351
0.806788,511.668
0.83655,512.973
0.867019,514.441
0.897226,516.307
0.937869,520.878