File: csv/Mg-MOF-74.csv
Relative Pressure (P/Po), Quantity Adsorbed (cm3/g STP)
0.0000341,2.67973
0.0000585,3.33732
0.0000829,9.38407
0.000106975,29.275
0.000125602,49.1668
0.000144069,69.0553
0.000163778,88.934
0.000187348,108.805
0.000208741,117.643
0.00026291,123.382
0.00032538,143.255
0.000393299,163.055
0.00040154,166.149
0.000460131,177.7
0.000541423,185.866
0.000650309,188.426
0.000858217,194.449
0.001130007,201.05
0.001352074,204.545
0.001629688,207.859
0.002048444,211.851
0.002672633,216.356
0.00340465,219.856
0.004236093,222.369
0.005229068,224.474
0.006804549,227.019
0.008670638,229.092
0.0106025,230.66
0.0135606,232.492
0.0175136,234.253
0.02198175,235.694
0.0277976,237.144
0.0355583,238.641
0.0450877,240.064
0.0570843,241.482
0.0738528,242.98
0.0935045,244.418
0.117918,245.849
0.148441,247.347
0.187453,248.942
0.236738,250.673
0.301022,252.576
0.376151,254.571
0.475698,256.971
0.539979,258.31
0.603025,259.576
0.644358,260.291
0.684219,260.927
0.724397,261.538
0.764352,262.216
0.790607,262.679
0.815986,263.154
0.841262,263.725
0.866822,264.36
0.914684,266
0.942892,267.34
0.967733,269.159