File: csv/MIL-101.csv
Relative Pressure (P/Po), Quantity Adsorbed (cm3/g STP)
7.24E-05,0.08753826
0.000143586,4.44849
0.000194756,24.3099
0.00022592,43.8685
0.000262361,63.7515
0.000320934,83.6313
0.000342678,84.5319
0.000410737,98.2231
0.000490593,118.09
0.000529528,128.917
0.000645145,148.75
0.000669906,149.072
0.000824694,168.938
0.001013574,188.706
0.00101671,188.845
0.00130365,207.716
0.00169959,227.374
0.00211443,241.675
0.00259059,254.863
0.003406121,271.878
0.004145448,284.585
0.005452415,302.159
0.006729352,316.21
0.008632363,333.191
0.0108917,349.607
0.0138006,366.73
0.0174006,384.151
0.02206847,402.768
0.0278236,422.141
0.034458,441.647
0.04178732,461.04
0.0448685,468.662
0.0530044,487.884
0.0548013,491.957
0.065061,514.104
0.0717499,528.264
0.081786,551.267
0.088454,568.141
0.0995423,591.886
0.114468,610.102
0.139194,629.696
0.155311,640.707
0.181102,660.531
0.192015,686.038
0.206189,712.055
0.246716,720.213
0.302737,727.348
0.372466,733.915
0.474121,740.961
0.537798,744.47
0.6024543,747.541
0.643579,749.357
0.684178,751.05
0.724253,752.701
0.764418,754.373
0.790465,755.494
0.815945,756.643
0.841291,757.887
0.866639,759.278
0.913919,762.767
0.941891,766.23
0.965929,772.298