File: csv/MIL-100.csv
Relative Pressure (P/Po), Quantity Adsorbed (cm3/g STP)
0.001034,197.129
0.001108417,199.524
0.00118819,202.082
0.001273703,204.812
0.001365372,207.723
0.001463638,210.823
0.001568975,214.122
0.001681894,217.626
0.00180294,221.342
0.001932698,225.275
0.002071794,229.427
0.002220901,233.799
0.002380739,238.386
0.00255208,243.179
0.002735753,248.161
0.002932645,253.307
0.003143708,258.581
0.00336996,263.934
0.003612496,269.296
0.003872487,274.578
0.004151189,279.66
0.00444995,284.388
0.004770213,288.564
0.005113525,292.092
0.005481545,295.488
0.005876051,298.803
0.00629895,302.014
0.006752285,305.107
0.007238246,308.071
0.007759182,310.907
0.00831761,313.635
0.008916228,316.293
0.009557928,318.952
0.0102458,321.623
0.0109832,324.288
0.0117737,326.938
0.012621,329.57
0.0135293,332.182
0.01450305,334.783
0.0155468,337.391
0.0166657,340.041
0.01786517,342.79
0.0191509,345.701
0.0205292,348.674
0.0220067,351.682
0.0235905,354.729
0.02528833,357.829
0.02710833,361.007
0.0290593,364.303
0.0311507,367.757
0.0333926,371.106
0.03579589,374.459
0.0383721,378.203
0.0411338,382.88
0.0440941,388.544
0.0472676,395.508
0.0506694,404.619
0.0543161,416.005
0.05822525,424.172
0.0624157,430.917
0.0669078,436.115
0.0717231,440.087
0.076885,445.298
0.0824184,451.435
0.0883501,458.598
0.0947086,466.446
0.101525,472.619
0.108832,479.666
0.116664,491.159
0.12506,506.19
0.134061,523.444
0.143709,530.634
0.154052,533.161
0.165139,536.335
0.177024,540.586
0.189765,541.081
0.203422,543.618
0.218062,543.785
0.233756,545.891
0.25058,548.854
0.268614,549.487
0.287946,551.577
0.30867,552.569
0.330884,553.507
0.354698,555.523
0.380226,556.66
0.407591,558.336
0.436925,559.624
0.46837,560.132
0.502079,562.136
0.538213,563.958
0.576949,564.525
0.618472,565.805
0.662983,566.643
0.710698,568.492
0.761847,570.978
0.816677,571.492
0.875453,572.483
0.938459,574.941