File: csv/MOF-5.csv
Relative Pressure (P/Po), Quantity Adsorbed (cm3/g STP)
4.88E-05,1.036
0.000103039,1.90804
0.000152256,2.15571
0.000192992,2.70102
0.000227689,3.15102
0.000262075,3.80533
0.000339317,17.8542
0.000410328,37.6792
0.000436056,44.4798
0.000530897,64.2932
0.00068157,83.5137
0.000825555,91.8364
0.001018034,98.6779
0.001387476,112.605
0.001754256,124.388
0.002082039,134.337
0.002634584,154.113
0.003096,173.926
0.003421564,190.692
0.00373714,210.479
0.003990249,230.263
0.004203087,250.025
0.004384442,269.787
0.004550507,289.523
0.004701429,309.269
0.004831217,329.018
0.004959268,348.724
0.005083147,368.449
0.005198735,388.165
0.005324749,407.835
0.005452929,427.54
0.005573198,447.224
0.005699939,466.945
0.005873153,486.604
0.006055369,506.438
0.006277627,526.084
0.006538265,545.771
0.006870036,565.404
0.007278209,585.064
0.007840088,604.602
0.008534543,623.844
0.009537856,643.198
0.01071683,659.897
0.0127169,679.317
0.0133568,683.812
0.0167836,703.156
0.017191,704.637
0.0216641,719.761
0.0295578,736.58
0.0374968,747.287
0.043816,753.546
0.0563548,763.026
0.0750008,772.765
0.0946229,780.029
0.12134,787.346
0.148705,793.224
0.186664,800
0.233461,807.523
0.292644,816.234
0.376873,825.795
0.477272,831.283
0.557468,832.901
0.622325,833.317
0.663689,833.227
0.703953,832.993
0.744085,832.691
0.784235,832.312
0.81037,831.949
0.835704,831.671
0.861221,831.31
0.886535,830.969
0.936029,830.322
0.962544,830.02
0.987972,829.895