File: csv/TPB-DMTP-COF.csv
Relative Pressure (P/Po), Quantity Adsorbed (cm3/g STP)
0.001665872,196.982
0.00194442,204.596
0.002868962,225.785
0.003965587,245.531
0.004867865,259.249
0.005726495,270.594
0.006790925,282.958
0.007894831,294.274
0.008900371,303.402
0.009887064,311.533
0.0119982,325.7
0.0139958,337.7
0.0191974,364.28
0.023006,380.5
0.0288494,402.005
0.0382415,432.055
0.0500177,465.046
0.0570592,483.043
0.069002,511.318
0.07905353,533.223
0.0889275,553.511
0.098903,572.689
0.117843,606.25
0.137931,638.703
0.158643,670.077
0.178416,700.003
0.197221,730.806
0.214358,773.984
0.224922,892.8
0.235341,999.326
0.268275,1042.28
0.295847,1060.15
0.326119,1078.69
0.342338,1087.51
0.360029,1096.14
0.380357,1105.53
0.399925,1114.12
0.448298,1134.84
0.50004,1156.09
0.549395,1176.26
0.599734,1197.33
0.64933,1219.07
0.699352,1242.6
0.749629,1269.76
0.798779,1301.44
0.847692,1344.86
0.896305,1413.55
0.946154,1564.01
0.99812,2313.94