File: csv/UiO-66.csv
Relative Pressure (P/Po), Quantity Adsorbed (cm3/g STP)
1.23E-07,2.51421
2.48E-07,5.03725
3.50E-07,7.55824
5.48E-07,10.0859
7.55E-07,12.5973
9.99E-07,15.1046
1.22E-06,17.6388
1.47E-06,20.1634
1.97E-06,22.6913
2.84E-06,25.2215
3.85E-06,27.7319
5.17E-06,30.2541
6.88E-06,32.7757
8.83E-06,35.2992
1.14E-05,37.8351
1.44E-05,40.3645
1.78E-05,42.8806
2.15E-05,45.4115
2.54E-05,47.9454
2.91E-05,50.4589
3.30E-05,52.9952
3.67E-05,55.5098
4.04E-05,58.0454
4.40E-05,60.5875
4.76E-05,63.1276
5.12E-05,65.6682
5.48E-05,68.203
5.86E-05,70.7494
6.25E-05,73.2719
6.65E-05,75.7998
7.07E-05,78.3309
7.53E-05,80.8654
7.99E-05,83.3858
8.49E-05,85.9259
9.02E-05,88.4503
9.59E-05,90.9802
0.000101866,93.5077
0.00010843,96.0294
0.000115669,98.5676
0.000123923,101.098
0.000132532,103.644
0.000142085,106.172
0.000152225,108.699
0.000163528,111.219
0.000175053,113.744
0.000188404,116.274
0.000203102,118.799
0.000219533,121.325
0.000237273,123.848
0.000256856,126.378
0.000278382,128.905
0.000302122,131.428
0.000328336,133.966
0.000357464,136.488
0.000389421,139.008
0.000425039,141.532
0.00046396,144.039
0.000507494,146.548
0.000555773,149.06
0.000609421,151.57
0.000668535,154.061
0.000733715,156.534
0.000805316,158.995
0.0008836,161.444
0.000969555,163.872
0.001180284,168.6
0.001369924,172.5
0.001659897,177.7
0.001983868,182.643
0.002481232,188.8
0.0029778,193.956
0.003900276,202.086
0.004901601,209.48
0.005748579,214.955
0.006815202,220.954
0.007932263,226.471
0.008908562,230.793
0.009924807,234.943
0.0122161,242
0.0153445,250.3
0.020657,260.212
0.029154,267.667
0.0430383,274.492
0.05607993,278.478
0.060133,279.479
0.0703102,281.616
0.0804443,283.398
0.090171,284.871
0.100546,286.245
0.110564,287.446
0.120602,288.518
0.130586,289.501
0.140095,290.39
0.150375,291.264
0.160508,292.051
0.170668,292.805
0.179966,293.487
0.190646,294.209
0.200302,294.826
0.210335,295.439
0.220488,296.031
0.230573,296.586
0.240847,297.154
0.250568,297.665
0.260795,298.182
0.269581,298.636
0.280302,299.134
0.290696,299.612
0.300169,300
0.319237,300.844
0.340946,301.743
0.360937,302.537
0.380701,303.296
0.401084,304.066
0.421098,304.795
0.440715,305.508
0.460879,306.227
0.479423,306.926
0.500683,307.676
0.519295,308.373
0.540989,309.113
0.559147,309.806
0.580858,310.577
0.600769,311.301
0.620649,312.02
0.640945,312.783
0.660587,313.537
0.680476,314.357
0.699493,315.23
0.71941,316.191
0.739506,317.191
0.759643,318.301
0.779643,319.48
0.799645,320.762
0.809048,321.467
0.820769,322.313
0.829733,323.057
0.839253,323.915
0.850506,324.914
0.860631,325.976
0.869346,326.946
0.880763,328.291
0.889853,329.5
0.900879,331.125
0.909389,332.582
0.919316,334.498
0.929206,336.777
0.939179,339.622
0.94913,343.327
0.986264,404.226
0.989723,439.351
0.992202,501.973