File: csv/UiO-66-NH2.csv
Relative Pressure (P/Po), Quantity Adsorbed (cm3/g STP)
0.000000848,19.5369
0.00000229,39.2633
0.00000569,58.8985
0.0000104,78.5368
0.0000212,98.1616
0.0000417,117.773
0.0000881,137.365
0.00019284,156.893
0.000441225,176.346
0.000989339,194.983
0.001921761,210.942
0.00291461,221.457
0.003944906,229.297
0.004813169,234.449
0.00594435,239.963
0.006835363,243.625
0.007914356,247.507
0.008883336,250.645
0.009932936,253.724
0.01909818,275.105
0.029133,293.921
0.0384295,310.312
0.0508289,325.711
0.0573561,331.611
0.0698217,340.196
0.0802729,345.455
0.0905916,349.261
0.100872,352.216
0.145608,360.647
0.204339,367.217
0.256823,371.572
0.307448,375.18
0.355312,378.274
0.400438,380.993
0.450467,383.837
0.500563,386.595
0.550629,389.326
0.600467,392.136
0.650694,395.114
0.70078,398.4
0.749541,402.012
0.799036,406.486
0.809765,407.799
0.820898,409.045
0.830183,410.199
0.840518,411.533
0.850135,412.867
0.860012,414.365
0.870324,416.064
0.880063,417.867
0.890037,419.924
0.899697,422.216
0.910225,425.041
0.920572,428.25
0.929732,431.883
0.939226,436.345
0.948783,442.354
0.959005,450.963
0.968528,463.104
0.977413,482.262
0.986178,513.238
0.992911,555.957