File: csv/Zeolite-13X.csv
Relative Pressure (P/Po), Quantity Adsorbed (cm3/g STP)
0.00002,2.02648
0.0000579,2.54124
0.0000907,3.5472
0.0000997,5.86678
0.000120002,15.08
0.000135878,25.7629
0.000149981,40.33
0.000153726,45.6781
0.000162203,64.1224
0.000169951,75.52
0.00017989,84.0243
0.000206222,88.1031
0.000247599,90.4145
0.000279922,98.4
0.00030673,110.313
0.000320061,118.2
0.000331941,130.17
0.000340176,149.91
0.000410145,162.7
0.000537827,169.283
0.000900104,175.9
0.001686888,181.742
0.00209589,183.171
0.002623178,184.567
0.003299735,185.915
0.004185916,187.208
0.005255232,188.356
0.006657108,189.491
0.008491008,190.615
0.01080895,191.675
0.0136723,192.662
0.0173791,193.63
0.02212,194.546
0.0279722,195.401
0.0355024,196.262
0.04518963,197.087
0.0571048,197.855
0.0735038,198.662
0.0928973,199.382
0.117365,200.068
0.148033,200.718
0.186992,201.342
0.23627,201.92
0.298619,202.453
0.376376,202.916
0.475677,203.309
0.5396658,203.521
0.603275,203.693
0.644041,203.808
0.684269,203.919
0.724374,204.028
0.764422,204.153
0.790647,204.246
0.815998,204.364
0.841458,204.476
0.866632,204.617
0.915619,205.033
0.942539,205.51
0.967869,206.364