File: csv/ZIF-8.csv
Relative Pressure (P/Po), Quantity Adsorbed (cm3/g STP)
4.20E-05,20.349
9.97E-05,40.698
0.000148121,60.914
0.000188506,81.263
0.000224278,101.612
0.000259844,122.094
0.000299953,142.31
0.000349057,162.26
0.000417927,183.54
0.000521085,203.49
0.000684773,223.44
0.000949862,243.39
0.001422718,263.34
0.00193056,275.31
0.002936687,288.61
0.003871099,295.26
0.004945074,301.91
0.005730774,305.9
0.006698907,312.55
0.008054492,323.19
0.008892109,328.51
0.009781263,332.5
0.02074716,356.44
0.0291109,364.42
0.0381637,400.33
0.04836001,413.63
0.0637743,420.28
0.0697769,421.61
0.08004303,424.27
0.0900836,425.6
0.10043,428.26
0.145027,433.58
0.20271,438.9
0.25486,442.89
0.305344,446.88
0.354387,449.54
0.39927,452.2
0.449413,454.86
0.499422,457.52
0.549131,460.18
0.599553,462.84
0.648966,465.5
0.699056,468.16
0.748964,470.82
0.7992439,474.81
0.809236,476.14
0.819317,476.14
0.829267,477.47
0.839404,478.8
0.850175,480.13
0.859576,481.46
0.86908,482.79
0.879065,484.12
0.889537,485.45
0.899628,488.11
0.909863,489.44
0.919855,492.1
0.929147,494.76
0.939056,498.75
0.948885,502.74
0.959088,509.39
0.969052,517.37
0.978076,529.34
0.986984,549.29
0.994456,585.2